N MODIS Camera Average Relative Spectral Response (No Out-Of-Band <0.1%)
RSR_412
  394.0000 0.0000000  25380.71
  395.0000 0.0010288  25316.46
  396.0000 0.0014148  25252.53
  397.0000 0.0019456  25188.92
  398.0000 0.0026756  25125.63
  399.0000 0.0036794  25062.66
  400.0000 0.0050597  25000.00
  401.0000 0.0069580  24937.66
  402.0000 0.0360107  24875.62
  403.0000 0.1280520  24813.90
  404.0000 0.3256990  24752.48
  405.0000 0.5233150  24691.36
  406.0000 0.6228030  24630.54
  407.0000 0.6295850  24570.02
  408.0000 0.6184080  24509.80
  409.0000 0.6799010  24449.88
  410.0000 0.7567140  24390.24
  411.0000 0.7636720  24330.90
  412.0000 0.6012570  24271.84
  413.0000 0.4340820  24213.08
  414.0000 0.5786130  24154.59
  415.0000 0.8405760  24096.39
  416.0000 1.0000000  24038.46
  417.0000 0.9792480  23980.82
  418.0000 0.8367920  23923.44
  419.0000 0.5928650  23866.35
  420.0000 0.3371580  23809.52
  421.0000 0.1430660  23752.97
  422.0000 0.0482788  23696.68
  423.0000 0.0157471  23640.66
  424.0000 0.0091948  23584.91
  425.0000 0.0060430  23529.41
  426.0000 0.0039716  23474.18
  427.0000 0.0026102  23419.20
  428.0000 0.0017155  23364.49
  429.0000 0.0011275  23310.02
  480.0000 0.0010400  20833.33
  481.0000 0.0012310  20790.02
  482.0000 0.0014220  20746.89
  483.0000 0.0016130  20703.93
  484.0000 0.0018040  20661.16
  485.0000 0.0019950  20618.56
  486.0000 0.0021860  20576.13
  487.0000 0.0023770  20533.88
  488.0000 0.0025680  20491.80
  489.0000 0.0027590  20449.90
  490.0000 0.0029500  20408.16
  491.0000 0.0034110  20366.60
  492.0000 0.0038720  20325.20
  493.0000 0.0043330  20283.98
  494.0000 0.0047940  20242.91
  495.0000 0.0052550  20202.02
  496.0000 0.0057160  20161.29
  497.0000 0.0061770  20120.72
  498.0000 0.0066380  20080.32
  499.0000 0.0070990  20040.08
  500.0000 0.0075600  20000.00
  501.0000 0.0079740  19960.08
  502.0000 0.0083880  19920.32
  503.0000 0.0088020  19880.72
  504.0000 0.0092160  19841.27
  505.0000 0.0096300  19801.98
  506.0000 0.0100440  19762.85
  507.0000 0.0104580  19723.87
  508.0000 0.0108720  19685.04
  509.0000 0.0112860  19646.37
  510.0000 0.0117000  19607.84
  511.0000 0.0111370  19569.47
  512.0000 0.0105740  19531.25
  513.0000 0.0100110  19493.18
  514.0000 0.0094480  19455.25
  515.0000 0.0088850  19417.48
  516.0000 0.0083220  19379.84
  517.0000 0.0077590  19342.36
  518.0000 0.0071960  19305.02
  519.0000 0.0066330  19267.82
  520.0000 0.0060700  19230.77
  521.0000 0.0056200  19193.86
  522.0000 0.0051700  19157.09
  523.0000 0.0047200  19120.46
  524.0000 0.0042700  19083.97
  525.0000 0.0038200  19047.62
  526.0000 0.0033700  19011.41
  527.0000 0.0029200  18975.33
  528.0000 0.0024700  18939.39
  529.0000 0.0020200  18903.59
  530.0000 0.0015700  18867.92
  531.0000 0.0015750  18832.39
  532.0000 0.0015800  18796.99
  533.0000 0.0015850  18761.73
  534.0000 0.0015900  18726.59
  535.0000 0.0015950  18691.59
  536.0000 0.0016000  18656.72
  537.0000 0.0016050  18621.97
  538.0000 0.0016100  18587.36
  539.0000 0.0016150  18552.88
  540.0000 0.0016200  18518.52
  541.0000 0.0016450  18484.29
  542.0000 0.0016700  18450.18
  543.0000 0.0016950  18416.21
  544.0000 0.0017200  18382.35
  545.0000 0.0017450  18348.62
  546.0000 0.0017700  18315.02
  547.0000 0.0017950  18281.54
  548.0000 0.0018200  18248.18
  549.0000 0.0018450  18214.94
  550.0000 0.0018700  18181.82
  551.0000 0.0018420  18148.82
  552.0000 0.0018140  18115.94
  553.0000 0.0017860  18083.18
  554.0000 0.0017580  18050.54
  555.0000 0.0017300  18018.02
  556.0000 0.0017020  17985.61
  557.0000 0.0016740  17953.32
  558.0000 0.0016460  17921.15
  559.0000 0.0016180  17889.09
  560.0000 0.0015900  17857.14
  561.0000 0.0015720  17825.31
  562.0000 0.0015540  17793.59
  563.0000 0.0015360  17761.99
  564.0000 0.0015180  17730.50
  565.0000 0.0015000  17699.12
  566.0000 0.0014820  17667.84
  567.0000 0.0014640  17636.68
  568.0000 0.0014460  17605.63
  569.0000 0.0014280  17574.69
  570.0000 0.0014100  17543.86
  571.0000 0.0012823  17513.13
  572.0000 0.0011546  17482.52
  573.0000 0.0010269  17452.01
  574.0000 0.0000000  17421.60
RSR_443
  424.0000 0.0000000  23584.91
  425.0000 0.0012109  23529.41
  426.0000 0.0017444  23474.18
  427.0000 0.0025129  23419.20
  428.0000 0.0036199  23364.49
  429.0000 0.0052146  23310.02
  430.0000 0.0075119  23255.81
  431.0000 0.0108212  23201.86
  432.0000 0.0155884  23148.15
  433.0000 0.0224558  23094.69
  434.0000 0.0323486  23041.47
  435.0000 0.0969849  22988.51
  436.0000 0.2407230  22935.78
  437.0000 0.4359130  22883.30
  438.0000 0.5906680  22831.05
  439.0000 0.7597960  22779.04
  440.0000 0.9250490  22727.27
  441.0000 0.9948120  22675.74
  442.0000 1.0000800  22624.43
  443.0000 0.9998220  22573.36
  444.0000 0.9966130  22522.52
  445.0000 0.9415280  22471.91
  446.0000 0.7851560  22421.52
  447.0000 0.5290370  22371.36
  448.0000 0.2532960  22321.43
  449.0000 0.0915527  22271.71
  450.0000 0.0367126  22222.22
  451.0000 0.0117493  22172.95
  452.0000 0.0062424  22123.89
  453.0000 0.0034117  22075.06
  454.0000 0.0018647  22026.43
  455.0000 0.0010191  21978.02
  456.0000 0.0000000  21929.82
RSR_469
  451.0000 0.0000000  22172.95
  452.0000 0.0162000  22123.89
  453.0000 0.0381100  22075.06
  454.0000 0.0915200  22026.43
  455.0000 0.1965600  21978.02
  456.0000 0.3607400  21929.82
  457.0000 0.5667300  21881.84
  458.0000 0.7641500  21834.06
  459.0000 0.9140300  21786.49
  460.0000 0.9862800  21739.13
  461.0000 0.9994000  21691.97
  462.0000 0.9637500  21645.02
  463.0000 0.9103000  21598.27
  464.0000 0.8680400  21551.72
  465.0000 0.8539200  21505.38
  466.0000 0.8574000  21459.23
  467.0000 0.8663000  21413.28
  468.0000 0.8814000  21367.52
  469.0000 0.9054000  21321.96
  470.0000 0.9212700  21276.60
  471.0000 0.9191100  21231.42
  472.0000 0.8896200  21186.44
  473.0000 0.8276800  21141.65
  474.0000 0.7246800  21097.05
  475.0000 0.5902900  21052.63
  476.0000 0.4310900  21008.40
  477.0000 0.2770100  20964.36
  478.0000 0.1509200  20920.50
  479.0000 0.0703600  20876.83
  480.0000 0.0299800  20833.33
  481.0000 0.0129900  20790.02
  482.0000 0.0000000  20746.89
RSR_488
  415.0000 0.0000000  24096.39
  416.0000 0.0010080  24038.46
  417.0000 0.0011035  23980.82
  418.0000 0.0011990  23923.44
  419.0000 0.0012945  23866.35
  420.0000 0.0013900  23809.52
  421.0000 0.0012878  23752.97
  422.0000 0.0011856  23696.68
  423.0000 0.0010834  23640.66
  460.0000 0.0010100  21739.13
  461.0000 0.0011180  21691.97
  462.0000 0.0012260  21645.02
  463.0000 0.0013340  21598.27
  464.0000 0.0014420  21551.72
  465.0000 0.0015500  21505.38
  466.0000 0.0016580  21459.23
  467.0000 0.0017660  21413.28
  468.0000 0.0018740  21367.52
  469.0000 0.0019820  21321.96
  470.0000 0.0020900  21276.60
  471.0000 0.0025386  21231.42
  472.0000 0.0034712  21186.44
  473.0000 0.0047464  21141.65
  474.0000 0.0064900  21097.05
  475.0000 0.0088742  21052.63
  476.0000 0.0121342  21008.40
  477.0000 0.0165918  20964.36
  478.0000 0.0226869  20920.50
  479.0000 0.0310211  20876.83
  480.0000 0.0972290  20833.33
  481.0000 0.2343750  20790.02
  482.0000 0.4559940  20746.89
  483.0000 0.7158510  20703.93
  484.0000 0.9002080  20661.16
  485.0000 0.9601750  20618.56
  486.0000 0.9806670  20576.13
  487.0000 0.9885040  20533.88
  488.0000 0.9906390  20491.80
  489.0000 1.0002400  20449.90
  490.0000 0.9887850  20408.16
  491.0000 0.9138790  20366.60
  492.0000 0.7359920  20325.20
  493.0000 0.4575710  20283.98
  494.0000 0.1795650  20242.91
  495.0000 0.0398254  20202.02
  496.0000 0.0097962  20161.29
  497.0000 0.0071224  20120.72
  498.0000 0.0051785  20080.32
  499.0000 0.0037651  20040.08
  500.0000 0.0027375  20000.00
  501.0000 0.0019903  19960.08
  502.0000 0.0014471  19920.32
  503.0000 0.0010521  19880.72
  504.0000 0.0000000  19841.27
RSR_531
  511.0000 0.0000000  19569.47
  512.0000 0.0011640  19531.25
  513.0000 0.0015604  19493.18
  514.0000 0.0020920  19455.25
  515.0000 0.0028046  19417.48
  516.0000 0.0037600  19379.84
  517.0000 0.0050408  19342.36
  518.0000 0.0067579  19305.02
  519.0000 0.0090598  19267.82
  520.0000 0.0121460  19230.77
  521.0000 0.0435028  19193.86
  522.0000 0.1239010  19157.09
  523.0000 0.2569120  19120.46
  524.0000 0.4521100  19083.97
  525.0000 0.6860660  19047.62
  526.0000 0.8844910  19011.41
  527.0000 0.9844670  18975.33
  528.0000 0.9854240  18939.39
  529.0000 0.9848330  18903.59
  530.0000 0.9980010  18867.92
  531.0000 0.9966050  18832.39
  532.0000 0.9630360  18796.99
  533.0000 0.8986970  18761.73
  534.0000 0.8116150  18726.59
  535.0000 0.7033840  18691.59
  536.0000 0.5467220  18656.72
  537.0000 0.3474480  18621.97
  538.0000 0.1608280  18587.36
  539.0000 0.0581665  18552.88
  540.0000 0.0205154  18518.52
  541.0000 0.0097282  18484.29
  542.0000 0.0075719  18450.18
  543.0000 0.0058936  18416.21
  544.0000 0.0045873  18382.35
  545.0000 0.0035705  18348.62
  546.0000 0.0027791  18315.02
  547.0000 0.0021631  18281.54
  548.0000 0.0016837  18248.18
  549.0000 0.0013105  18214.94
  550.0000 0.0010200  18181.82
  551.0000 0.0000000  18148.82
RSR_551
  523.0000 0.0000000  19120.46
  524.0000 0.0010286  19083.97
  525.0000 0.0010905  19047.62
  526.0000 0.0011524  19011.41
  527.0000 0.0012143  18975.33
  528.0000 0.0012762  18939.39
  529.0000 0.0013381  18903.59
  530.0000 0.0014000  18867.92
  531.0000 0.0018403  18832.39
  532.0000 0.0026714  18796.99
  533.0000 0.0038778  18761.73
  534.0000 0.0056291  18726.59
  535.0000 0.0081712  18691.59
  536.0000 0.0118614  18656.72
  537.0000 0.0172181  18621.97
  538.0000 0.0249939  18587.36
  539.0000 0.0757141  18552.88
  540.0000 0.1623230  18518.52
  541.0000 0.2907710  18484.29
  542.0000 0.4667360  18450.18
  543.0000 0.6762310  18416.21
  544.0000 0.8726810  18382.35
  545.0000 0.9713130  18348.62
  546.0000 0.9963680  18315.02
  547.0000 0.9997560  18281.54
  548.0000 0.9832460  18248.18
  549.0000 0.9447630  18214.94
  550.0000 0.8735960  18181.82
  551.0000 0.7586060  18148.82
  552.0000 0.6026000  18115.94
  553.0000 0.4147490  18083.18
  554.0000 0.2190550  18050.54
  555.0000 0.0771484  18018.02
  556.0000 0.0227356  17985.61
  557.0000 0.0098907  17953.32
  558.0000 0.0081074  17921.15
  559.0000 0.0066456  17889.09
  560.0000 0.0054474  17857.14
  561.0000 0.0044652  17825.31
  562.0000 0.0036602  17793.59
  563.0000 0.0030002  17761.99
  564.0000 0.0024593  17730.50
  565.0000 0.0020159  17699.12
  566.0000 0.0016524  17667.84
  567.0000 0.0013545  17636.68
  568.0000 0.0011103  17605.63
  569.0000 0.0000000  17574.69
RSR_555
  538.0000 0.0000000  18587.36
  539.0000 0.0163300  18552.88
  540.0000 0.0401100  18518.52
  541.0000 0.0900700  18484.29
  542.0000 0.1783900  18450.18
  543.0000 0.3092800  18416.21
  544.0000 0.4729900  18382.35
  545.0000 0.6519500  18348.62
  546.0000 0.8074900  18315.02
  547.0000 0.9182400  18281.54
  548.0000 0.9732700  18248.18
  549.0000 0.9908100  18214.94
  550.0000 0.9960600  18181.82
  551.0000 0.9996900  18148.82
  552.0000 0.9943300  18115.94
  553.0000 0.9869500  18083.18
  554.0000 0.9860300  18050.54
  555.0000 0.9857200  18018.02
  556.0000 0.9840500  17985.61
  557.0000 0.9808500  17953.32
  558.0000 0.9758200  17921.15
  559.0000 0.9604600  17889.09
  560.0000 0.9321000  17857.14
  561.0000 0.8702500  17825.31
  562.0000 0.7713400  17793.59
  563.0000 0.6402800  17761.99
  564.0000 0.4846900  17730.50
  565.0000 0.3156700  17699.12
  566.0000 0.1709700  17667.84
  567.0000 0.0752000  17636.68
  568.0000 0.0283900  17605.63
  569.0000 0.0104400  17574.69
  570.0000 0.0000000  17543.86
RSR_645
  613.0000 0.0000000  16313.21
  614.0000 0.0150800  16286.64
  615.0000 0.0280700  16260.16
  616.0000 0.0730100  16233.77
  617.0000 0.1179500  16207.46
  618.0000 0.1711900  16181.23
  619.0000 0.2738900  16155.09
  620.0000 0.3769900  16129.03
  621.0000 0.4829600  16103.06
  622.0000 0.5889400  16077.17
  623.0000 0.6860300  16051.36
  624.0000 0.7306700  16025.64
  625.0000 0.7699000  16000.00
  626.0000 0.7742900  15974.44
  627.0000 0.7786900  15948.96
  628.0000 0.7827900  15923.57
  629.0000 0.7849300  15898.25
  630.0000 0.7869500  15873.02
  631.0000 0.7882900  15847.86
  632.0000 0.7896400  15822.78
  633.0000 0.7912000  15797.79
  634.0000 0.7942500  15772.87
  635.0000 0.7975700  15748.03
  636.0000 0.8025300  15723.27
  637.0000 0.8074900  15698.59
  638.0000 0.8125700  15673.98
  639.0000 0.8183100  15649.45
  640.0000 0.8239800  15625.00
  641.0000 0.8292300  15600.62
  642.0000 0.8344800  15576.32
  643.0000 0.8402100  15552.10
  644.0000 0.8491000  15527.95
  645.0000 0.8586500  15503.88
  646.0000 0.8721000  15479.88
  647.0000 0.8855500  15455.95
  648.0000 0.8985300  15432.10
  649.0000 0.9085500  15408.32
  650.0000 0.9195200  15384.62
  651.0000 0.9371500  15360.98
  652.0000 0.9547900  15337.42
  653.0000 0.9717100  15313.94
  654.0000 0.9834400  15290.52
  655.0000 0.9938000  15267.18
  656.0000 0.9959600  15243.90
  657.0000 0.9981300  15220.70
  658.0000 0.9975100  15197.57
  659.0000 0.9790500  15174.51
  660.0000 0.9568400  15151.52
  661.0000 0.9075100  15128.59
  662.0000 0.8581900  15105.74
  663.0000 0.8098500  15082.96
  664.0000 0.7673900  15060.24
  665.0000 0.7227100  15037.59
  666.0000 0.6648800  15015.02
  667.0000 0.6070400  14992.50
  668.0000 0.5469600  14970.06
  669.0000 0.4727000  14947.68
  670.0000 0.3987900  14925.37
  671.0000 0.3271700  14903.13
  672.0000 0.2555500  14880.95
  673.0000 0.1874600  14858.84
  674.0000 0.1414500  14836.80
  675.0000 0.0984700  14814.81
  676.0000 0.0764600  14792.90
  677.0000 0.0544600  14771.05
  678.0000 0.0340000  14749.26
  679.0000 0.0244400  14727.54
  680.0000 0.0156400  14705.88
  681.0000 0.0119500  14684.29
  682.0000 0.0000000  14662.76
RSR_667
  650.0000 0.0000000  15384.62
  651.0000 0.0012866  15360.98
  652.0000 0.0020144  15337.42
  653.0000 0.0031539  15313.94
  654.0000 0.0049379  15290.52
  655.0000 0.0077311  15267.18
  656.0000 0.0121044  15243.90
  657.0000 0.0189514  15220.70
  658.0000 0.0645447  15197.57
  659.0000 0.1683350  15174.51
  660.0000 0.3263400  15151.52
  661.0000 0.5098110  15128.59
  662.0000 0.7102050  15105.74
  663.0000 0.8728030  15082.96
  664.0000 0.9674680  15060.24
  665.0000 0.9998780  15037.59
  666.0000 0.9907840  15015.02
  667.0000 0.9367370  14992.50
  668.0000 0.8513180  14970.06
  669.0000 0.7912600  14947.68
  670.0000 0.6867070  14925.37
  671.0000 0.4988400  14903.13
  672.0000 0.3399050  14880.95
  673.0000 0.2218930  14858.84
  674.0000 0.0935669  14836.80
  675.0000 0.0144043  14814.81
  676.0000 0.0074147  14792.90
  677.0000 0.0050628  14771.05
  678.0000 0.0034569  14749.26
  679.0000 0.0023604  14727.54
  680.0000 0.0016117  14705.88
  681.0000 0.0011005  14684.29
  682.0000 0.0000000  14662.76
RSR_678
  653.0000 0.0000000  15313.94
  654.0000 0.0010660  15290.52
  655.0000 0.0011750  15267.18
  656.0000 0.0012840  15243.90
  657.0000 0.0013930  15220.70
  658.0000 0.0015020  15197.57
  659.0000 0.0016110  15174.51
  660.0000 0.0017200  15151.52
  661.0000 0.0023398  15128.59
  662.0000 0.0032139  15105.74
  663.0000 0.0044145  15082.96
  664.0000 0.0060636  15060.24
  665.0000 0.0083289  15037.59
  666.0000 0.0114403  15015.02
  667.0000 0.0228271  14992.50
  668.0000 0.0456085  14970.06
  669.0000 0.0937195  14947.68
  670.0000 0.1874540  14925.37
  671.0000 0.3336180  14903.13
  672.0000 0.5035480  14880.95
  673.0000 0.6681900  14858.84
  674.0000 0.8172230  14836.80
  675.0000 0.9336550  14814.81
  676.0000 0.9919430  14792.90
  677.0000 0.9983520  14771.05
  678.0000 0.9841890  14749.26
  679.0000 0.9640290  14727.54
  680.0000 0.9332890  14705.88
  681.0000 0.8388520  14684.29
  682.0000 0.7013000  14662.76
  683.0000 0.5544990  14641.29
  684.0000 0.3991700  14619.88
  685.0000 0.2286380  14598.54
  686.0000 0.0942688  14577.26
  687.0000 0.0359039  14556.04
  688.0000 0.0155144  14534.88
  689.0000 0.0117500  14513.79
  690.0000 0.0086947  14492.75
  691.0000 0.0064339  14471.78
  692.0000 0.0047609  14450.87
  693.0000 0.0035230  14430.01
  694.0000 0.0026069  14409.22
  695.0000 0.0019291  14388.49
  696.0000 0.0014275  14367.82
  697.0000 0.0010563  14347.20
  698.0000 0.0000000  14326.65
RSR_748
  609.0000 0.0000000  16420.36
  610.0000 0.0010300  16393.44
  611.0000 0.0011730  16366.61
  612.0000 0.0013160  16339.87
  613.0000 0.0014590  16313.21
  614.0000 0.0016020  16286.64
  615.0000 0.0017450  16260.16
  616.0000 0.0018880  16233.77
  617.0000 0.0020310  16207.46
  618.0000 0.0021740  16181.23
  619.0000 0.0023170  16155.09
  620.0000 0.0024600  16129.03
  621.0000 0.0024460  16103.06
  622.0000 0.0024320  16077.17
  623.0000 0.0024180  16051.36
  624.0000 0.0024040  16025.64
  625.0000 0.0023900  16000.00
  626.0000 0.0023760  15974.44
  627.0000 0.0023620  15948.96
  628.0000 0.0023480  15923.57
  629.0000 0.0023340  15898.25
  630.0000 0.0023200  15873.02
  631.0000 0.0023450  15847.86
  632.0000 0.0023700  15822.78
  633.0000 0.0023950  15797.79
  634.0000 0.0024200  15772.87
  635.0000 0.0024450  15748.03
  636.0000 0.0024700  15723.27
  637.0000 0.0024950  15698.59
  638.0000 0.0025200  15673.98
  639.0000 0.0025450  15649.45
  640.0000 0.0025700  15625.00
  641.0000 0.0027110  15600.62
  642.0000 0.0028520  15576.32
  643.0000 0.0029930  15552.10
  644.0000 0.0031340  15527.95
  645.0000 0.0032750  15503.88
  646.0000 0.0034160  15479.88
  647.0000 0.0035570  15455.95
  648.0000 0.0036980  15432.10
  649.0000 0.0038390  15408.32
  650.0000 0.0039800  15384.62
  651.0000 0.0038650  15360.98
  652.0000 0.0037500  15337.42
  653.0000 0.0036350  15313.94
  654.0000 0.0035200  15290.52
  655.0000 0.0034050  15267.18
  656.0000 0.0032900  15243.90
  657.0000 0.0031750  15220.70
  658.0000 0.0030600  15197.57
  659.0000 0.0029450  15174.51
  660.0000 0.0028300  15151.52
  661.0000 0.0025721  15128.59
  662.0000 0.0023142  15105.74
  663.0000 0.0020563  15082.96
  664.0000 0.0017984  15060.24
  665.0000 0.0015405  15037.59
  666.0000 0.0012826  15015.02
  667.0000 0.0010247  14992.50
  722.0000 0.0011040  13850.42
  723.0000 0.0012635  13831.26
  724.0000 0.0014230  13812.15
  725.0000 0.0015825  13793.10
  726.0000 0.0017420  13774.10
  727.0000 0.0019015  13755.16
  728.0000 0.0020610  13736.26
  729.0000 0.0022205  13717.42
  730.0000 0.0023800  13698.63
  731.0000 0.0030197  13679.89
  732.0000 0.0043208  13661.20
  733.0000 0.0061825  13642.56
  734.0000 0.0088464  13623.98
  735.0000 0.0126581  13605.44
  736.0000 0.0153852  13586.96
  737.0000 0.0181122  13568.52
  738.0000 0.0389709  13550.14
  739.0000 0.0911560  13531.80
  740.0000 0.1903690  13513.51
  741.0000 0.3324580  13495.28
  742.0000 0.4959870  13477.09
  743.0000 0.6706240  13458.95
  744.0000 0.8268430  13440.86
  745.0000 0.9290770  13422.82
  746.0000 0.9750210  13404.83
  747.0000 0.9998780  13386.88
  748.0000 0.9848020  13368.98
  749.0000 0.9033200  13351.13
  750.0000 0.7788770  13333.33
  751.0000 0.6360020  13315.58
  752.0000 0.4763790  13297.87
  753.0000 0.2800600  13280.21
  754.0000 0.1262820  13262.60
  755.0000 0.0555115  13245.03
  756.0000 0.0253220  13227.51
  757.0000 0.0115433  13210.04
  758.0000 0.0083910  13192.61
  759.0000 0.0058152  13175.23
  760.0000 0.0040301  13157.89
  761.0000 0.0027930  13140.60
  762.0000 0.0019356  13123.36
  763.0000 0.0013415  13106.16
  866.0000 0.0011064  11547.34
  867.0000 0.0012198  11534.03
  868.0000 0.0013332  11520.74
  869.0000 0.0014466  11507.48
  870.0000 0.0015600  11494.25
  871.0000 0.0014115  11481.06
  872.0000 0.0012630  11467.89
  873.0000 0.0011145  11454.75
  874.0000 0.0000000  11441.65
RSR_859
  819.0000 0.0000000  12210.01
  820.0000 0.0104600  12195.12
  821.0000 0.0153900  12180.27
  822.0000 0.0206200  12165.45
  823.0000 0.0258500  12150.67
  824.0000 0.0353200  12135.92
  825.0000 0.0452700  12121.21
  826.0000 0.0600100  12106.54
  827.0000 0.0753000  12091.90
  828.0000 0.0905800  12077.29
  829.0000 0.1111700  12062.73
  830.0000 0.1323100  12048.19
  831.0000 0.1603100  12033.69
  832.0000 0.1889900  12019.23
  833.0000 0.2176700  12004.80
  834.0000 0.2569700  11990.41
  835.0000 0.2972500  11976.05
  836.0000 0.3581800  11961.72
  837.0000 0.4209400  11947.43
  838.0000 0.4836900  11933.17
  839.0000 0.5643500  11918.95
  840.0000 0.6466800  11904.76
  841.0000 0.7189100  11890.61
  842.0000 0.7901400  11876.48
  843.0000 0.8613600  11862.40
  844.0000 0.9154600  11848.34
  845.0000 0.9677500  11834.32
  846.0000 0.9810700  11820.33
  847.0000 0.9901100  11806.38
  848.0000 0.9991600  11792.45
  849.0000 0.9929200  11778.56
  850.0000 0.9851200  11764.71
  851.0000 0.9798100  11750.88
  852.0000 0.9747400  11737.09
  853.0000 0.9696700  11723.33
  854.0000 0.9680100  11709.60
  855.0000 0.9666500  11695.91
  856.0000 0.9674200  11682.24
  857.0000 0.9684300  11668.61
  858.0000 0.9694300  11655.01
  859.0000 0.9679000  11641.44
  860.0000 0.9661400  11627.91
  861.0000 0.9718900  11614.40
  862.0000 0.9783400  11600.93
  863.0000 0.9847900  11587.49
  864.0000 0.9833600  11574.07
  865.0000 0.9811000  11560.69
  866.0000 0.9737900  11547.34
  867.0000 0.9659700  11534.03
  868.0000 0.9581500  11520.74
  869.0000 0.9352600  11507.48
  870.0000 0.9107400  11494.25
  871.0000 0.8653200  11481.06
  872.0000 0.8180900  11467.89
  873.0000 0.7708600  11454.75
  874.0000 0.7028400  11441.65
  875.0000 0.6330000  11428.57
  876.0000 0.5415900  11415.53
  877.0000 0.4480600  11402.51
  878.0000 0.3545300  11389.52
  879.0000 0.2769400  11376.56
  880.0000 0.2011800  11363.64
  881.0000 0.1618500  11350.74
  882.0000 0.1259900  11337.87
  883.0000 0.0901200  11325.03
  884.0000 0.0737600  11312.22
  885.0000 0.0591800  11299.44
  886.0000 0.0516800  11286.68
  887.0000 0.0449400  11273.96
  888.0000 0.0382000  11261.26
  889.0000 0.0344700  11248.59
  890.0000 0.0310500  11235.96
  891.0000 0.0284900  11223.34
  892.0000 0.0259900  11210.76
  893.0000 0.0235000  11198.21
  894.0000 0.0212900  11185.68
  895.0000 0.0191200  11173.18
  896.0000 0.0169500  11160.71
  897.0000 0.0147800  11148.27
  898.0000 0.0126100  11135.86
  899.0000 0.0105900  11123.47
  900.0000 0.0000000  11111.11
RSR_869
  842.0000 0.0000000  11876.48
  843.0000 0.0012068  11862.40
  844.0000 0.0015721  11848.34
  845.0000 0.0020480  11834.32
  846.0000 0.0026679  11820.33
  847.0000 0.0034755  11806.38
  848.0000 0.0045275  11792.45
  849.0000 0.0058980  11778.56
  850.0000 0.0076833  11764.71
  851.0000 0.0100090  11750.88
  852.0000 0.0130386  11737.09
  853.0000 0.0241394  11723.33
  854.0000 0.0455933  11709.60
  855.0000 0.0836334  11695.91
  856.0000 0.1424560  11682.24
  857.0000 0.2280580  11668.61
  858.0000 0.3366700  11655.01
  859.0000 0.4637300  11641.44
  860.0000 0.5977060  11627.91
  861.0000 0.7263950  11614.40
  862.0000 0.8358760  11600.93
  863.0000 0.9232180  11587.49
  864.0000 0.9761960  11574.07
  865.0000 0.9994200  11560.69
  866.0000 0.9988820  11547.34
  867.0000 0.9832080  11534.03
  868.0000 0.9702000  11520.74
  869.0000 0.9611590  11507.48
  870.0000 0.9450380  11494.25
  871.0000 0.8923950  11481.06
  872.0000 0.8095320  11467.89
  873.0000 0.7097020  11454.75
  874.0000 0.6004180  11441.65
  875.0000 0.4791870  11428.57
  876.0000 0.3408990  11415.53
  877.0000 0.1985470  11402.51
  878.0000 0.0979004  11389.52
  879.0000 0.0476532  11376.56
  880.0000 0.0275497  11363.64
  881.0000 0.0171928  11350.74
  882.0000 0.0113144  11337.87
  883.0000 0.0084292  11325.03
  884.0000 0.0063097  11312.22
  885.0000 0.0047231  11299.44
  886.0000 0.0035354  11286.68
  887.0000 0.0026464  11273.96
  888.0000 0.0019810  11261.26
  889.0000 0.0014829  11248.59
  890.0000 0.0011100  11235.96
  891.0000 0.0010205  11223.34
  892.0000 0.0000000  11210.76
